# wavelength [pm] 	 position [qc]
-3.912100000000000000e+05 9.681949615478520066e-01
-3.912100000000000000e+05 9.683780670166020066e-01
-3.882529000000000233e+05 9.646015167236330345e-01
-3.852958000000000466e+05 9.684772491455080345e-01
-3.823387000000000698e+05 9.720668792724610485e-01
-3.793816000000000931e+05 9.669933319091800206e-01
-3.764245000000001164e+05 9.700450897216800206e-01
-3.734674000000001397e+05 9.676189422607419655e-01
-3.705103000000001630e+05 9.698314666748050206e-01
-3.675532000000001863e+05 9.679718017578130551e-01
-3.645961000000002095e+05 9.719867706298830345e-01
-3.616390000000002328e+05 9.655456542968750000e-01
-3.586819000000002561e+05 9.686546325683590419e-01
-3.557248000000002794e+05 9.740829467773439720e-01
-3.527677000000003027e+05 9.716224670410159581e-01
-3.498106000000003260e+05 9.687080383300780140e-01
-3.468535000000003492e+05 9.689464569091800206e-01
-3.438964000000003725e+05 9.687938690185550206e-01
-3.409393000000003958e+05 9.706459045410159581e-01
-3.379822000000004191e+05 9.757919311523439720e-01
-3.350251000000004424e+05 9.735202789306639515e-01
-3.320680000000004657e+05 9.765548706054689720e-01
-3.291109000000004889e+05 9.736309051513669655e-01
-3.261538000000005122e+05 9.760265350341800206e-01
-3.231967000000005355e+05 9.669704437255860485e-01
-3.202396000000005588e+05 9.738464355468750000e-01
-3.172825000000005821e+05 9.780178070068360485e-01
-3.143254000000006054e+05 9.754295349121090419e-01
