# wavelength [pm] 	 position [qc]
-4.207200000000000000e+05 3.601562500000000000e+00
-4.207200000000000000e+05 3.596120834350589934e+00
-4.193400200000000186e+05 3.607763290405269885e+00
-4.179600400000000373e+05 3.622308731079099786e+00
-4.165800600000000559e+05 3.771560668945309835e+00
-4.152000800000000745e+05 4.210266113281250000e+00
-4.138201000000000931e+05 3.772901535034180132e+00
-4.124401200000001118e+05 3.620321273803710049e+00
-4.110601400000001304e+05 3.632722854614260033e+00
-4.096801600000001490e+05 3.615346908569339934e+00
-4.083001800000001676e+05 3.625867843627930132e+00
-4.069202000000001863e+05 3.881761550903319868e+00
-4.055402200000002049e+05 4.764770507812500000e+00
-4.041602400000002235e+05 5.768369674682619852e+00
-4.027802600000002421e+05 2.661735725402829900e+01
-4.014002800000002608e+05 3.085613441467290130e+01
-4.000203000000002794e+05 5.822582244873049717e+01
-3.986403200000002980e+05 3.063477325439449928e+01
-3.972603400000003166e+05 5.744249343872070312e+00
-3.958803600000003353e+05 4.177122116088869852e+00
-3.945003800000003539e+05 3.846523284912109819e+00
-3.931204000000003725e+05 3.660406112670900214e+00
-3.917404200000003912e+05 3.622993469238279918e+00
-3.903604400000004098e+05 3.624921798706049803e+00
-3.889804600000004284e+05 3.638671875000000000e+00
-3.876004800000004470e+05 3.641454696655269885e+00
-3.862205000000004657e+05 3.804706573486329901e+00
-3.848405200000004843e+05 4.251426696777340197e+00
-3.834605400000005029e+05 3.803365707397460049e+00
-3.820805600000005215e+05 3.645072937011720082e+00
