# wavelength [pm] 	 position [qc]
-4.200910000000000000e+05 2.864465713500980115e+00
-4.200910000000000000e+05 2.865770339965819868e+00
-4.187110200000000186e+05 2.897222518920900214e+00
-4.173310400000000373e+05 3.023662567138670099e+00
-4.159510600000000559e+05 3.521602630615229934e+00
-4.145710800000000745e+05 4.670457839965820312e+00
-4.131911000000000931e+05 3.415802001953129885e+00
-4.118111200000001118e+05 2.842407226562500000e+00
-4.104311400000001304e+05 2.844579696655269885e+00
-4.090511600000001490e+05 2.847204208374019885e+00
-4.076711800000001676e+05 2.856369018554690165e+00
-4.062912000000001863e+05 3.519969940185549984e+00
-4.049112200000002049e+05 5.388595581054690165e+00
-4.035312400000002235e+05 5.234069824218750000e+00
-4.021512600000002421e+05 2.902519226074220082e+00
-4.007712800000002608e+05 9.263059234619140625e+01
-3.993913000000002794e+05 9.522158050537109375e+01
-3.980113200000002980e+05 4.677977752685549717e+01
-3.966313400000003166e+05 4.303642272949219638e+00
-3.952513600000003353e+05 3.425397872924799803e+00
-3.938713800000003539e+05 3.096199035644529918e+00
-3.924914000000003725e+05 2.862871170043950197e+00
-3.911114200000003912e+05 2.841245651245119852e+00
-3.897314400000004098e+05 2.855611801147460049e+00
-3.883514600000004284e+05 2.855562210083010033e+00
-3.869714800000004470e+05 2.911333084106450197e+00
-3.855915000000004657e+05 3.561557769775390181e+00
-3.842115200000004843e+05 4.540004730224610263e+00
-3.828315400000005029e+05 3.324806213378909803e+00
-3.814515600000005215e+05 2.853446960449220082e+00
