# wavelength [nm] 	 position [qc]
5.000000000000000000e+02 -3.997183000000002794e+05
5.100000000000000000e+02 -4.002803000000002794e+05
5.200000000000000000e+02 -4.004243000000002794e+05
5.300000000000000000e+02 -4.003453000000002794e+05
5.400000000000000000e+02 -4.002403000000002794e+05
5.500000000000000000e+02 -4.001133000000002794e+05
5.600000000000000000e+02 -4.003543000000002794e+05
5.700000000000000000e+02 -4.003743000000002794e+05
5.800000000000000000e+02 -4.003683000000002794e+05
5.900000000000000000e+02 -4.001413000000002794e+05
6.000000000000000000e+02 -3.996933000000002794e+05
6.100000000000000000e+02 -4.000203000000002794e+05
6.200000000000000000e+02 -4.003343000000002794e+05
6.300000000000000000e+02 -3.998493000000002794e+05
6.400000000000000000e+02 -3.995543000000002794e+05
6.500000000000000000e+02 -3.998853000000002794e+05
6.600000000000000000e+02 -3.992743200000002980e+05
6.700000000000000000e+02 -3.996933000000002794e+05
6.800000000000000000e+02 -4.003393000000002794e+05
6.900000000000000000e+02 -3.999463000000002794e+05
7.000000000000000000e+02 -4.000773000000002794e+05
7.100000000000000000e+02 -3.987603000000002794e+05
7.200000000000000000e+02 -3.997593000000002794e+05
7.300000000000000000e+02 -3.993913000000002794e+05
7.400000000000000000e+02 -3.992423000000002794e+05
7.500000000000000000e+02 -3.999043000000002794e+05
7.600000000000000000e+02 -3.995883000000002794e+05
7.700000000000000000e+02 -3.988533000000002794e+05
7.800000000000000000e+02 -3.998663000000002794e+05
7.900000000000000000e+02 -3.998673000000002794e+05
8.000000000000000000e+02 -3.998923000000002794e+05
8.100000000000000000e+02 -3.982593000000002794e+05
8.200000000000000000e+02 -3.995073000000002794e+05
8.300000000000000000e+02 -3.992963000000002794e+05
8.400000000000000000e+02 -3.976263200000002980e+05
8.500000000000000000e+02 -3.982443200000002980e+05
